Current (mA),Time (ms)
Current (mA),Time (ms)
0.000,92.000
2.612,10292.000
2.598,10562.000
2.589,10832.000
2.691,11104.000
2.808,11377.000
2.917,11649.000
3.009,11918.000
3.069,12188.000
3.099,12458.000
3.107,12730.000
3.101,13002.000
3.097,13275.000
3.098,13546.000
3.097,13821.000
3.094,14091.000
3.088,14362.000
3.079,14634.000
3.067,14905.000
3.054,15179.000
3.039,15451.000
3.024,15723.000
3.006,15994.000
2.989,16265.000
2.974,16533.000
2.958,16806.000
2.944,17079.000
2.927,17353.000
2.917,17625.000
2.921,17897.000
2.907,18168.000
2.893,18440.000
2.882,18711.000
2.872,18983.000
2.864,19254.000
2.857,19526.000
2.849,19799.000
2.843,20072.000
2.837,20344.000
2.834,20615.000
2.830,20887.000
2.823,21159.000
2.817,21429.000
2.812,21700.000
2.809,21972.000
2.802,22241.000
2.794,22513.000
2.786,22785.000
2.785,23056.000
2.786,23329.000
2.783,23601.000
2.781,23873.000
2.778,24147.000
2.777,24420.000
2.775,24691.000
2.777,24963.000
2.776,25236.000
2.774,25506.000
2.775,25781.000
2.770,26050.000
2.767,26323.000
2.765,26595.000
2.766,26869.000
2.766,27143.000
2.773,27416.000
2.773,27691.000
2.779,27962.000
2.782,28233.000
2.782,28505.000
2.785,28777.000
2.782,29049.000
2.780,29323.000
2.782,29595.000
2.787,29867.000
2.791,30139.000
2.793,30411.000
2.790,30681.000
2.790,30954.000
2.787,31228.000
2.787,31500.000
2.796,31772.000
2.809,32046.000
2.814,32319.000
2.813,32591.000
2.818,32862.000
2.818,33134.000
2.818,33405.000
2.833,33677.000
2.832,33949.000
2.832,34222.000
2.833,34494.000
2.839,34766.000
2.845,35040.000
2.846,35312.000
2.845,35585.000
2.846,35857.000
2.847,36129.000
2.850,36402.000
2.858,36678.000
2.859,36951.000
2.858,37221.000
2.859,37494.000
2.862,37765.000
2.864,38037.000
2.869,38308.000
2.868,38579.000
2.872,38852.000
2.876,39124.000
2.880,39397.000
2.878,39668.000
2.880,39941.000
2.885,40212.000
2.891,40483.000
2.895,40754.000
2.918,41025.000
2.935,41298.000
2.938,41572.000
2.936,41842.000
2.934,42113.000
2.933,42385.000
2.935,42655.000
2.937,42927.000
2.937,43198.000
2.941,43471.000
2.950,43745.000
2.956,44016.000
2.959,44291.000
2.968,44564.000
2.974,44835.000
2.973,45107.000
2.978,45379.000
2.982,45652.000
2.982,45920.000
2.979,46190.000
2.985,46461.000
2.989,46733.000
2.990,47004.000
2.986,47274.000
2.987,47546.000
2.997,47818.000
3.003,48091.000
2.999,48362.000
3.001,48633.000
3.022,48904.000
3.039,49174.000
3.054,49447.000
3.061,49718.000
3.066,49988.000
3.066,50262.000
3.060,50534.000
3.058,50805.000
3.058,51076.000
3.052,51346.000
3.048,51616.000
3.052,51890.000
3.057,52162.000
3.055,52432.000
3.054,52705.000
3.057,52977.000
3.070,53251.000
3.096,53523.000
3.095,53794.000
3.097,54064.000
3.097,54334.000
3.094,54608.000
3.095,54879.000
3.095,55151.000
3.092,55423.000
3.090,55694.000
3.094,55966.000
3.102,56238.000
3.118,56507.000
3.127,56778.000
3.130,57051.000
3.128,57322.000
3.130,57591.000
3.144,57861.000
3.144,58132.000
3.145,58405.000
3.135,58676.000
3.134,58948.000
3.134,59222.000
3.136,59496.000
3.137,59771.000
3.137,60044.000
3.135,60316.000
3.132,60587.000
3.134,60860.000
3.134,61131.000
3.134,61402.000
3.143,61674.000
3.143,61944.000
3.150,62214.000
3.152,62486.000
3.156,62756.000
3.153,63027.000
3.152,63299.000
3.168,63571.000
3.169,63841.000
3.170,64111.000
3.167,64382.000
3.162,64654.000
3.163,64925.000
3.165,65197.000
3.163,65469.000
3.172,65741.000
3.177,66012.000
3.184,66282.000
3.196,66553.000
3.202,66825.000
3.193,67095.000
3.202,67367.000
3.208,67638.000
3.211,67913.000
3.210,68184.000
3.206,68454.000
3.203,68728.000
3.210,68999.000
3.208,69271.000
3.208,69541.000
3.213,69814.000
3.212,70085.000
3.215,70359.000
3.224,70629.000
3.232,70901.000
3.235,71171.000
3.238,71443.000
3.236,71714.000
3.230,71984.000
3.227,72255.000
3.227,72527.000
3.227,72800.000
3.225,73073.000
3.238,73345.000
3.232,73616.000
3.237,73887.000
3.244,74159.000
3.241,74429.000
3.239,74702.000
3.239,74971.000
3.243,75238.000
3.246,75511.000
3.250,75782.000
3.258,76055.000
3.269,76326.000
3.279,76599.000
3.286,76872.000
3.278,77139.000
3.273,77412.000
3.269,77685.000
3.262,77956.000
3.275,78227.000
3.275,78499.000
3.275,78772.000
3.276,79043.000
3.292,79318.000
3.288,79588.000
3.286,79863.000
3.278,80136.000
3.277,80407.000
3.278,80678.000
3.285,80949.000
3.298,81221.000
3.301,81492.000
3.298,81764.000
3.313,82037.000
3.311,82311.000
3.309,82583.000
3.320,82855.000
3.313,83127.000
3.308,83400.000
3.305,83668.000
3.296,83942.000
3.295,84214.000
3.293,84485.000
3.295,84759.000
3.296,85031.000
3.301,85303.000
3.300,85578.000
3.299,85849.000
3.302,86120.000
3.302,86391.000
3.299,86663.000
3.298,86936.000
3.298,87207.000
3.295,87480.000
3.295,87751.000
3.299,88023.000
3.304,88294.000
3.310,88565.000
3.310,88837.000
3.318,89109.000
3.316,89380.000
3.315,89655.000
3.322,89929.000
3.322,90199.000
3.313,90471.000
3.310,90744.000
3.309,91015.000
3.298,91287.000
3.300,91557.000
3.296,91830.000
3.287,92102.000
3.284,92374.000
3.289,92644.000
3.289,92917.000
3.302,93192.000
3.300,93464.000
3.313,93737.000
3.310,94012.000
3.312,94285.000
3.310,94555.000
3.301,94829.000
3.307,95103.000
3.305,95376.000
3.307,95648.000
3.305,95920.000
3.305,96193.000
3.302,96465.000
3.299,96737.000
3.298,97008.000
3.295,97281.000
3.290,97553.000
3.294,97826.000
3.298,98098.000
3.300,98369.000
3.299,98642.000
3.305,98912.000
3.307,99184.000
3.308,99454.000
3.310,99726.000
3.303,99998.000
3.304,100268.000
3.301,100542.000
3.306,100814.000
3.303,101084.000
3.305,101357.000
3.314,101631.000
3.311,101904.000
3.310,102176.000
3.309,102446.000
3.312,102718.000
3.312,102992.000
3.312,103264.000
3.315,103535.000
3.321,103808.000
3.312,104081.000
3.309,104354.000
3.314,104627.000
3.314,104898.000
3.316,105170.000
3.312,105443.000
3.311,105714.000
3.315,105985.000
3.315,106258.000
3.314,106530.000
3.316,106801.000
3.315,107072.000
3.312,107344.000
3.316,107617.000
3.318,107888.000
3.345,108158.000
3.349,108430.000
3.356,108702.000
3.359,108974.000
3.358,109246.000
3.351,109518.000
3.350,109789.000
3.350,110060.000
3.349,110333.000
3.372,110605.000
3.369,110877.000
3.369,111149.000
3.368,111417.000
3.364,111688.000
3.357,111958.000
3.361,112231.000
3.358,112503.000
3.356,112777.000
3.352,113048.000
3.366,113319.000
3.369,113593.000
3.371,113866.000
3.367,114140.000
3.366,114411.000
3.364,114682.000
3.361,114953.000
3.353,115225.000
3.349,115499.000
3.343,115770.000
3.343,116044.000
3.336,116316.000
3.341,116589.000
3.344,116860.000
3.341,117131.000
3.343,117403.000
3.344,117675.000
3.349,117946.000
3.349,118217.000
3.349,118491.000
3.347,118763.000
3.352,119033.000
3.351,119304.000
3.350,119575.000
3.352,119847.000
3.349,120117.000
3.345,120389.000
3.343,120663.000
3.341,120937.000
3.344,121209.000
3.339,121479.000
3.343,121752.000
3.340,122025.000
3.345,122296.000
3.355,122568.000
3.355,122839.000
3.353,123111.000
3.358,123381.000
3.358,123652.000
3.355,123924.000
3.366,124198.000
3.364,124468.000
3.363,124738.000
3.361,125011.000
3.362,125285.000
3.365,125559.000
3.366,125831.000
3.369,126102.000
3.367,126373.000
3.371,126646.000
3.379,126919.000
3.375,127189.000
3.388,127460.000
3.396,127733.000
3.393,128005.000
3.389,128277.000
3.384,128548.000
3.390,128821.000
3.423,129094.000
3.388,129367.000
3.415,129638.000
3.427,129910.000
3.386,130182.000
3.390,130451.000
3.415,130722.000
3.399,130995.000
3.396,131266.000
3.439,131541.000
3.440,131814.000
3.440,132087.000
3.627,132357.000
3.632,132629.000
3.615,132900.000
3.624,133170.000
3.624,133441.000
3.622,133713.000
3.627,133983.000
3.620,134255.000
3.606,134527.000
3.602,134800.000
3.605,135074.000
3.612,135344.000
3.619,135614.000
3.624,135886.000
3.618,136157.000
3.632,136428.000
3.615,136699.000
3.605,136973.000
3.621,137247.000
3.619,137518.000
3.613,137791.000
3.617,138062.000
3.623,138333.000
3.634,138606.000
3.632,138879.000
3.630,139152.000
3.616,139424.000
3.615,139696.000
3.609,139967.000
3.613,140242.000
3.601,140514.000
3.596,140785.000
3.609,141059.000
3.607,141331.000
3.614,141604.000
3.614,141875.000
3.605,142147.000
3.604,142416.000
3.604,142688.000
3.611,142960.000
3.636,143234.000
3.652,143505.000
3.654,143776.000
3.658,144049.000
3.649,144323.000
3.642,144594.000
3.627,144868.000
3.643,145138.000
3.643,145408.000
3.649,145681.000
3.631,145953.000
3.631,146223.000
3.636,146494.000
3.644,146767.000
3.664,147040.000
3.668,147312.000
3.677,147586.000
3.691,147860.000
3.675,148132.000
3.666,148405.000
3.656,148676.000
3.661,148946.000
3.660,149218.000
3.663,149491.000
3.661,149762.000
3.663,150034.000
3.675,150306.000
3.679,150580.000
3.683,150853.000
3.677,151125.000
3.680,151400.000
3.679,151672.000
3.672,151943.000
3.667,152217.000
3.661,152491.000
3.659,152763.000
3.659,153035.000
3.657,153307.000
3.656,153579.000
3.657,153852.000
3.615,154123.000
3.613,154395.000
3.600,154666.000
3.632,154936.000
3.648,155209.000
3.715,155482.000
3.717,155754.000
3.711,156025.000
3.710,156297.000
3.708,156570.000
3.708,156843.000
3.713,157113.000
3.718,157384.000
3.720,157656.000
3.717,157929.000
3.719,158201.000
3.725,158473.000
3.740,158745.000
3.749,159016.000
3.779,159288.000
3.785,159560.000
3.852,159832.000
3.854,160106.000
3.846,160378.000
3.916,160649.000
3.911,160922.000
3.907,161193.000
3.914,161463.000
3.929,161738.000
3.942,162012.000
3.925,162282.000
3.939,162553.000
3.943,162825.000
3.933,163097.000
3.943,163369.000
3.970,163642.000
3.967,163916.000
3.960,164187.000
3.952,164459.000
3.953,164729.000
3.969,165002.000
3.975,165274.000
3.981,165545.000
4.000,165819.000
3.989,166092.000
3.970,166365.000
3.966,166637.000
3.960,166907.000
3.984,167180.000
4.023,167450.000
4.025,167720.000
4.034,167995.000
4.033,168268.000
4.029,168539.000
4.014,168811.000
4.031,169083.000
4.044,169354.000
4.015,169626.000
4.042,169896.000
4.034,170167.000
4.011,170437.000
4.006,170709.000
4.014,170982.000
4.002,171252.000
4.006,171523.000
4.025,171795.000
4.024,172066.000
4.019,172337.000
4.030,172609.000
4.051,172881.000
4.050,173154.000
4.072,173425.000
4.079,173696.000
4.068,173970.000
4.076,174244.000
4.076,174514.000
4.106,174783.000
4.101,175054.000
4.107,175327.000
4.100,175601.000
4.123,175872.000
4.124,176144.000
4.102,176416.000
4.121,176689.000
4.106,176961.000
4.114,177232.000
4.132,177505.000
4.156,177780.000
4.141,178050.000
4.166,178322.000
4.196,178595.000
4.194,178865.000
4.183,179136.000
4.218,179408.000
4.216,179679.000
4.220,179952.000
4.243,180224.000
4.236,180497.000
4.223,180769.000
4.230,181042.000
4.225,181312.000
4.231,181586.000
4.247,181858.000
4.250,182131.000
4.252,182401.000
4.293,182670.000
4.261,182941.000
4.285,183216.000
4.275,183484.000
4.281,183756.000
4.280,184026.000
4.288,184295.000
4.293,184564.000
4.293,184836.000
4.314,185108.000
4.316,185379.000
4.325,185650.000
4.338,185923.000
4.358,186193.000
4.381,186462.000
4.392,186735.000
4.379,187007.000
4.405,187276.000
4.400,187546.000
4.447,187816.000
4.425,188087.000
4.421,188358.000
4.432,188627.000
4.483,188899.000
4.446,189168.000
4.435,189438.000
4.440,189711.000
4.460,189982.000
4.415,190253.000
4.427,190524.000
4.445,190795.000
4.470,191065.000
4.381,191338.000
4.388,191610.000
4.414,191878.000
4.417,192149.000
4.409,192419.000
4.433,192690.000
4.418,192961.000
4.430,193233.000
4.474,193504.000
4.444,193779.000
4.526,194051.000
4.612,194323.000
4.735,194594.000
4.769,194865.000
4.751,195137.000
4.740,195409.000
4.771,195683.000
4.756,195956.000
4.761,196228.000
4.757,196500.000
4.799,196771.000
4.823,197041.000
4.791,197312.000
5.067,197583.000
